	Frequency [Hz]	Amplitude [mm/s]	Phase Angle [°]	
1	2.e-002	1.1815e-007	-90.	
2	63.61	4.7913e-004	-90.677	
3	74.521	6.2663e-004	-90.893	
4	83.322	7.8575e-004	-91.128	
5	89.859	9.4145e-004	-91.363	
6	94.42	1.079e-003	-91.575	
7	97.467	1.1897e-003	-91.755	
8	99.443	1.2725e-003	-91.914	
9	100.7	1.3311e-003	-92.079	
10	101.49	1.3705e-003	-92.275	
11	101.98	1.395e-003	-92.484	
12	102.29	1.409e-003	-92.647	
13	102.48	1.4166e-003	-92.741	
14	102.6	1.421e-003	-92.786	
15	102.67	1.4236e-003	-92.807	
16	102.71	1.4252e-003	-92.816	
17	102.74	1.4261e-003	-92.821	
18	102.76	1.4267e-003	-92.823	
19	102.77	1.4271e-003	-92.825	
20	102.77	1.4273e-003	-92.825	
21	102.78	1.4277e-003	-92.826	
22	102.79	1.428e-003	-92.827	
23	102.8	1.4283e-003	-92.827	
24	102.81	1.4286e-003	-92.828	
25	102.83	1.4292e-003	-92.829	
26	102.86	1.4302e-003	-92.829	
27	102.9	1.4318e-003	-92.827	
28	102.97	1.4344e-003	-92.819	
29	103.09	1.4389e-003	-92.794	
30	103.28	1.447e-003	-92.731	
31	103.59	1.4622e-003	-92.618	
32	104.09	1.4904e-003	-92.487	
33	104.91	1.54e-003	-92.42	
34	106.24	1.6262e-003	-92.468	
35	108.39	1.7828e-003	-92.669	
36	111.89	2.099e-003	-93.139	
37	117.57	2.8954e-003	-94.363	
38	118.23	3.0259e-003	-94.565	
39	122.8	4.3451e-003	-96.621	
40	126.77	6.8401e-003	-100.55	
41	129.34	1.0672e-002	-106.72	
42	130.97	1.6129e-002	-115.9	
43	132.	2.2746e-002	-128.17	
44	132.64	2.8883e-002	-141.86	
45	133.04	3.3001e-002	-154.13	
46	133.29	3.5103e-002	-163.32	
47	133.44	3.6012e-002	-169.49	
48	133.53	3.6374e-002	-173.43	
49	133.59	3.6513e-002	-175.89	
50	133.63	3.6565e-002	-177.41	
51	133.65	3.6585e-002	-178.35	
52	133.66	3.6592e-002	-178.93	
53	133.67	3.6594e-002	-179.29	
54	133.68	3.6595e-002	-179.86	
55	133.7	3.6593e-002	179.56	
56	133.7	3.6589e-002	179.21	
57	133.72	3.658e-002	178.63	
58	133.74	3.6558e-002	177.68	
59	133.78	3.6501e-002	176.16	
60	133.83	3.6355e-002	173.7	
61	133.93	3.5981e-002	169.76	
62	134.08	3.5054e-002	163.59	
63	134.33	3.2926e-002	154.4	
64	134.73	2.8777e-002	142.13	
65	135.39	2.261e-002	128.45	
66	136.45	1.5973e-002	116.18	
67	138.17	1.0505e-002	107.01	
68	140.98	6.6629e-003	100.87	
69	143.08	5.2143e-003	98.625	
70	144.58	4.5062e-003	97.56	
71	147.51	3.5518e-003	96.207	
72	149.38	3.1185e-003	95.647	
73	150.55	2.8875e-003	95.311	
74	151.28	2.7504e-003	95.043	
75	151.73	2.6626e-003	94.87	
76	152.02	2.6057e-003	94.805	
77	152.19	2.5695e-003	94.801	
78	152.3	2.547e-003	94.818	
79	152.36	2.533e-003	94.837	
80	152.4	2.5244e-003	94.852	
81	152.43	2.5191e-003	94.862	
82	152.44	2.5159e-003	94.869	
83	152.45	2.5139e-003	94.874	
84	152.47	2.5107e-003	94.882	
85	152.48	2.5075e-003	94.89	
86	152.49	2.5055e-003	94.895	
87	152.51	2.5022e-003	94.903	
88	152.53	2.4969e-003	94.919	
89	152.57	2.4884e-003	94.945	
90	152.64	2.4746e-003	94.994	
91	152.75	2.4525e-003	95.09	
92	152.92	2.4175e-003	95.282	
93	153.21	2.3635e-003	95.679	
94	153.66	2.2827e-003	96.491	
95	154.41	2.1643e-003	98.273	
96	154.83	2.1041e-003	99.69	
97	155.22	2.0572e-003	101.4	
98	155.97	2.0235e-003	106.08	
99	156.44	2.0804e-003	109.23	
100	156.73	2.1546e-003	110.51	
101	156.91	2.2113e-003	110.83	
102	157.02	2.2482e-003	110.81	
103	157.09	2.2709e-003	110.71	
104	157.13	2.2848e-003	110.63	
105	157.16	2.2932e-003	110.56	
106	157.17	2.2984e-003	110.52	
107	157.18	2.3016e-003	110.49	
108	157.2	2.3066e-003	110.44	
109	157.21	2.3116e-003	110.39	
110	157.22	2.3146e-003	110.36	
111	157.24	2.3196e-003	110.3	
112	157.26	2.3276e-003	110.2	
113	157.31	2.3401e-003	110.03	
114	157.37	2.3595e-003	109.71	
115	157.49	2.3877e-003	109.1	
116	157.66	2.4239e-003	107.95	
117	157.96	2.4554e-003	105.89	
118	158.43	2.4476e-003	102.74	
119	159.2	2.3597e-003	99.127	
120	160.45	2.1925e-003	96.183	
121	162.48	1.979e-003	94.352	
122	165.77	1.7375e-003	93.31	
123	171.12	1.4718e-003	92.647	
124	179.81	1.1904e-003	92.139	
125	192.01	9.4135e-004	91.759	
126	198.3	8.4933e-004	91.629	
127	208.37	7.3321e-004	91.467	
128	215.09	6.713e-004	91.358	
129	219.45	6.3695e-004	91.225	
130	222.23	6.1784e-004	90.993	
131	223.97	6.0676e-004	90.607	
132	225.06	5.9888e-004	90.135	
133	225.73	5.9222e-004	89.751	
134	226.15	5.8694e-004	89.529	
135	226.41	5.8322e-004	89.424	
136	226.57	5.808e-004	89.379	
137	226.67	5.7927e-004	89.36	
138	226.73	5.7832e-004	89.351	
139	226.77	5.7774e-004	89.348	
140	226.79	5.7738e-004	89.346	
141	226.8	5.7715e-004	89.345	
142	226.82	5.768e-004	89.344	
143	226.85	5.7644e-004	89.343	
144	226.86	5.7622e-004	89.343	
145	226.88	5.7585e-004	89.343	
146	226.92	5.7527e-004	89.344	
147	226.98	5.7432e-004	89.347	
148	227.08	5.7279e-004	89.359	
149	227.24	5.7037e-004	89.393	
150	227.5	5.6667e-004	89.483	
151	227.92	5.6142e-004	89.69	
152	228.61	5.5493e-004	90.068	
153	229.72	5.476e-004	90.544	
154	231.52	5.3788e-004	90.928	
155	234.45	5.2214e-004	91.14	
156	239.2	4.9638e-004	91.23	
157	246.92	4.5667e-004	91.265	
158	259.45	3.9902e-004	91.304	
159	279.8	3.1927e-004	91.448	
160	281.39	3.1356e-004	91.465	
161	293.71	2.7114e-004	91.648	
162	308.62	2.226e-004	92.039	
163	318.58	1.9068e-004	92.511	
164	325.04	1.6956e-004	93.027	
165	329.15	1.5563e-004	93.55	
166	331.74	1.4657e-004	94.044	
167	333.35	1.408e-004	94.469	
168	334.35	1.3721e-004	94.79	
169	334.97	1.35e-004	95.006	
170	335.35	1.3363e-004	95.142	
171	335.58	1.3279e-004	95.226	
172	335.73	1.3227e-004	95.278	
173	335.82	1.3194e-004	95.31	
174	335.88	1.3175e-004	95.33	
175	335.91	1.3162e-004	95.342	
176	335.93	1.3155e-004	95.35	
177	335.96	1.3143e-004	95.361	
178	336.	1.313e-004	95.373	
179	336.02	1.3123e-004	95.381	
180	336.05	1.3111e-004	95.393	
181	336.11	1.3091e-004	95.413	
182	336.2	1.3058e-004	95.445	
183	336.34	1.3005e-004	95.497	
184	336.58	1.2918e-004	95.582	
185	336.96	1.2774e-004	95.724	
186	337.59	1.2535e-004	95.97	
187	338.6	1.2129e-004	96.443	
188	340.24	1.143e-004	97.534	
189	342.92	1.0214e-004	100.81	
190	343.5	9.9408e-005	101.96	
191	343.92	9.7456e-005	102.92	
192	346.62	8.7688e-005	113.51	
193	348.31	9.1054e-005	124.22	
194	349.35	1.0143e-004	129.33	
195	350.	1.1079e-004	130.29	
196	350.4	1.17e-004	129.86	
197	350.64	1.2074e-004	129.23	
198	350.8	1.2295e-004	128.72	
199	350.89	1.2426e-004	128.36	
200	350.95	1.2505e-004	128.12	
201	350.98	1.2552e-004	127.97	
202	351.	1.2581e-004	127.87	
203	351.04	1.2627e-004	127.72	
204	351.07	1.2672e-004	127.56	
205	351.1	1.27e-004	127.46	
206	351.13	1.2744e-004	127.29	
207	351.19	1.2814e-004	127.01	
208	351.28	1.2923e-004	126.54	
209	351.44	1.3087e-004	125.73	
210	351.68	1.3314e-004	124.33	
211	352.08	1.3577e-004	121.92	
212	352.74	1.3734e-004	118.01	
213	353.79	1.3461e-004	112.53	
214	355.51	1.2419e-004	106.65	
215	358.3	1.0626e-004	102.37	
216	362.83	8.2605e-005	101.01	
217	370.19	5.1557e-005	104.86	
218	382.14	1.379e-005	170.63	
219	401.53	8.4381e-005	-102.07	
220	416.59	1.6553e-004	-98.219	
221	421.51	1.9694e-004	-97.729	
222	442.9	3.83e-004	-97.387	
223	457.2	5.9868e-004	-98.734	
224	466.47	8.4164e-004	-101.29	
225	472.36	1.1003e-003	-105.33	
226	476.07	1.3429e-003	-111.	
227	478.38	1.5196e-003	-117.5	
228	479.82	1.6083e-003	-123.17	
229	480.71	1.6363e-003	-127.13	
230	481.26	1.6387e-003	-129.55	
231	481.6	1.6342e-003	-130.97	
232	481.8	1.6292e-003	-131.79	
233	481.93	1.6254e-003	-132.28	
234	482.01	1.6228e-003	-132.57	
235	482.06	1.621e-003	-132.74	
236	482.09	1.6199e-003	-132.85	
237	482.14	1.6181e-003	-133.01	
238	482.19	1.6162e-003	-133.18	
239	482.22	1.615e-003	-133.28	
240	482.27	1.613e-003	-133.44	
241	482.35	1.6097e-003	-133.69	
242	482.47	1.6039e-003	-134.08	
243	482.68	1.5938e-003	-134.66	
244	483.02	1.5764e-003	-135.44	
245	483.57	1.548e-003	-136.26	
246	484.47	1.514e-003	-136.49	
247	485.92	1.5232e-003	-135.23	
248	487.88	1.674e-003	-134.7	
249	489.77	1.9163e-003	-138.8	
250	491.24	2.0998e-003	-145.86	
251	492.15	2.17e-003	-151.77	
252	492.71	2.1834e-003	-155.84	
253	493.05	2.1778e-003	-158.43	
254	493.27	2.1687e-003	-160.03	
255	493.4	2.1609e-003	-161.02	
256	493.48	2.1553e-003	-161.63	
257	493.53	2.1515e-003	-162.	
258	493.56	2.1491e-003	-162.22	
259	493.61	2.145e-003	-162.59	
260	493.66	2.1407e-003	-162.95	
261	493.69	2.1379e-003	-163.18	
262	493.74	2.1332e-003	-163.54	
263	493.82	2.125e-003	-164.13	
264	493.95	2.1105e-003	-165.08	
265	494.17	2.0838e-003	-166.58	
266	494.52	2.0329e-003	-168.9	
267	495.08	1.9337e-003	-172.24	
268	496.	1.7467e-003	-176.22	
269	497.49	1.4443e-003	-178.01	
270	499.9	1.1313e-003	-168.75	
271	503.82	1.2365e-003	-144.23	
272	505.23	1.4169e-003	-139.22	
273	506.38	1.6061e-003	-136.96	
274	510.35	2.5888e-003	-139.78	
275	512.83	3.5089e-003	-150.28	
276	514.37	4.1452e-003	-161.12	
277	515.32	4.4903e-003	-169.55	
278	515.91	4.6546e-003	-175.3	
279	516.27	4.7302e-003	-178.99	
280	516.49	4.7656e-003	178.7	
281	516.63	4.7829e-003	177.26	
282	516.72	4.7919e-003	176.38	
283	516.77	4.7968e-003	175.83	
284	516.8	4.7995e-003	175.49	
285	516.85	4.8035e-003	174.95	
286	516.91	4.807e-003	174.41	
287	516.94	4.8089e-003	174.08	
288	516.99	4.8116e-003	173.53	
289	517.07	4.8149e-003	172.64	
290	517.21	4.8173e-003	171.2	
291	517.44	4.8139e-003	168.88	
292	517.8	4.7891e-003	165.15	
293	518.39	4.7031e-003	159.31	
294	519.35	4.4701e-003	150.64	
295	520.91	3.9715e-003	139.14	
296	523.44	3.1828e-003	126.64	
297	527.55	2.2829e-003	116.45	
298	529.39	2.0026e-003	114.26	
299	530.93	1.8067e-003	113.25	
300	535.1	1.4186e-003	114.5	
301	537.7	1.291e-003	118.63	
302	539.31	1.2803e-003	121.55	
303	540.31	1.3013e-003	122.56	
304	540.93	1.3207e-003	122.63	
305	541.31	1.3333e-003	122.44	
306	541.54	1.3409e-003	122.23	
307	541.69	1.3454e-003	122.07	
308	541.78	1.3481e-003	121.95	
309	541.83	1.3497e-003	121.88	
310	541.87	1.3506e-003	121.83	
311	541.92	1.3521e-003	121.76	
312	541.97	1.3536e-003	121.68	
313	542.01	1.3545e-003	121.63	
314	542.06	1.356e-003	121.54	
315	542.15	1.3582e-003	121.39	
316	542.3	1.3616e-003	121.14	
317	542.53	1.3663e-003	120.69	
318	542.91	1.3716e-003	119.87	
319	543.53	1.3735e-003	118.38	
320	544.54	1.3594e-003	115.82	
321	546.17	1.3022e-003	112.03	
322	548.83	1.1749e-003	107.84	
323	553.13	9.7925e-004	104.94	
324	554.78	9.1406e-004	104.62	
325	556.13	8.6382e-004	104.61	
326	560.49	7.1597e-004	106.12	
327	563.21	6.3065e-004	108.65	
328	564.9	5.7921e-004	111.27	
329	565.95	5.4829e-004	113.54	
330	566.59	5.2993e-004	115.28	
331	566.99	5.1905e-004	116.5	
332	567.24	5.1256e-004	117.32	
333	567.39	5.0866e-004	117.84	
334	567.48	5.063e-004	118.18	
335	567.54	5.0487e-004	118.39	
336	567.58	5.0399e-004	118.52	
337	567.63	5.0259e-004	118.73	
338	567.69	5.012e-004	118.95	
339	567.73	5.0034e-004	119.08	
340	567.78	4.9896e-004	119.31	
341	567.88	4.9675e-004	119.67	
342	568.03	4.9324e-004	120.29	
343	568.27	4.878e-004	121.33	
344	568.67	4.7969e-004	123.14	
345	569.32	4.688e-004	126.4	
346	570.38	4.5883e-004	132.47	
347	572.09	4.7116e-004	143.64	
348	573.78	5.3137e-004	153.9	
349	575.41	6.4309e-004	159.97	
350	577.14	8.1067e-004	160.29	
351	578.21	9.2444e-004	157.29	
352	578.87	9.9048e-004	154.42	
353	579.28	1.0274e-003	152.34	
354	579.53	1.0481e-003	150.96	
355	579.68	1.0601e-003	150.08	
356	579.78	1.0671e-003	149.53	
357	579.84	1.0713e-003	149.19	
358	579.87	1.0738e-003	148.97	
359	579.93	1.0778e-003	148.63	
360	579.99	1.0817e-003	148.29	
361	580.02	1.084e-003	148.07	
362	580.08	1.0878e-003	147.72	
363	580.18	1.0936e-003	147.14	
364	580.33	1.1025e-003	146.2	
365	580.58	1.1151e-003	144.66	
366	580.99	1.1311e-003	142.13	
367	581.66	1.1453e-003	138.06	
368	582.73	1.1409e-003	131.9	
369	584.48	1.0859e-003	123.69	
370	587.32	9.5476e-004	115.13	
371	591.93	7.6268e-004	109.11	
372	598.3	5.6411e-004	108.65	
373	604.16	4.1552e-004	114.74	
374	608.91	3.1303e-004	128.5	
375	611.86	2.7025e-004	145.18	
376	613.7	2.6287e-004	159.19	
377	614.83	2.6912e-004	168.53	
378	615.54	2.7767e-004	174.23	
379	615.97	2.8479e-004	177.64	
380	616.24	2.899e-004	179.69	
381	616.4	2.9332e-004	-179.07	
382	616.5	2.9553e-004	-178.31	
383	616.56	2.9693e-004	-177.85	
384	616.6	2.9781e-004	-177.57	
385	616.66	2.9924e-004	-177.12	
386	616.73	3.007e-004	-176.67	
387	616.76	3.0163e-004	-176.39	
388	616.83	3.0316e-004	-175.94	
389	616.93	3.057e-004	-175.22	
390	617.09	3.1001e-004	-174.07	
391	617.36	3.1746e-004	-172.24	
392	617.79	3.3074e-004	-169.41	
393	618.5	3.5552e-004	-165.18	
394	619.64	4.0439e-004	-159.32	
395	621.5	5.0768e-004	-152.39	
396	624.52	7.4733e-004	-147.03	
397	626.68	9.8715e-004	-146.92	
398	628.68	1.2782e-003	-149.49	
399	631.73	1.8782e-003	-159.2	
400	633.63	2.3245e-003	-169.52	
401	634.8	2.5892e-003	-177.63	
402	635.52	2.73e-003	176.83	
403	635.97	2.8034e-003	173.26	
404	636.25	2.8427e-003	171.03	
405	636.42	2.8644e-003	169.64	
406	636.52	2.8767e-003	168.79	
407	636.59	2.884e-003	168.26	
408	636.63	2.8883e-003	167.94	
409	636.69	2.895e-003	167.41	
410	636.75	2.9014e-003	166.89	
411	636.79	2.9053e-003	166.57	
412	636.86	2.9113e-003	166.04	
413	636.96	2.9205e-003	165.18	
414	637.13	2.9336e-003	163.79	
415	637.41	2.9506e-003	161.55	
416	637.86	2.9667e-003	157.96	
417	638.58	2.9647e-003	152.33	
418	639.57	2.916e-003	145.3	
419	640.54	2.8319e-003	139.11	
420	641.27	2.7553e-003	134.98	
421	641.72	2.7048e-003	132.64	
422	642.	2.673e-003	131.27	
423	642.17	2.6533e-003	130.45	
424	642.28	2.6411e-003	129.95	
425	642.34	2.6335e-003	129.65	
426	642.38	2.6289e-003	129.47	
427	642.45	2.6215e-003	129.18	
428	642.51	2.614e-003	128.89	
429	642.55	2.6093e-003	128.71	
430	642.62	2.6018e-003	128.42	
431	642.72	2.5895e-003	127.95	
432	642.9	2.5696e-003	127.22	
433	643.17	2.5373e-003	126.05	
434	643.63	2.4853e-003	124.26	
435	644.36	2.4023e-003	121.59	
436	645.55	2.2733e-003	117.8	
437	647.49	2.0837e-003	112.88	
438	650.64	1.8334e-003	107.3	
439	655.74	1.5505e-003	101.96	
440	664.03	1.2782e-003	97.651	
441	664.52	1.2664e-003	97.485	
442	672.68	1.1114e-003	95.524	
443	677.96	1.0401e-003	94.923	
444	681.25	1.005e-003	94.845	
445	683.29	9.8808e-004	94.895	
446	684.56	9.7996e-004	94.917	
447	685.34	9.7579e-004	94.905	
448	685.82	9.7347e-004	94.883	
449	686.12	9.7211e-004	94.863	
450	686.3	9.7129e-004	94.848	
451	686.41	9.7079e-004	94.838	
452	686.48	9.7049e-004	94.831	
453	686.53	9.703e-004	94.827	
454	686.6	9.7e-004	94.82	
455	686.66	9.6971e-004	94.812	
456	686.71	9.6952e-004	94.807	
457	686.78	9.6922e-004	94.799	
458	686.89	9.6873e-004	94.786	
459	687.07	9.6795e-004	94.762	
460	687.37	9.6667e-004	94.719	
461	687.85	9.6455e-004	94.64	
462	688.64	9.6095e-004	94.487	
463	689.91	9.5445e-004	94.203	
464	691.98	9.4224e-004	93.731	
465	695.34	9.2078e-004	93.098	
466	696.22	9.1529e-004	92.964	
467	696.96	9.107e-004	92.857	
468	700.35	8.9085e-004	92.437	
469	702.45	8.7928e-004	92.214	
470	703.75	8.7232e-004	92.092	
471	704.55	8.6809e-004	92.025	
472	705.05	8.6551e-004	91.987	
473	705.35	8.6394e-004	91.965	
474	705.54	8.6297e-004	91.952	
475	705.66	8.6238e-004	91.944	
476	705.73	8.6201e-004	91.94	
477	705.77	8.6179e-004	91.937	
478	705.84	8.6143e-004	91.932	
479	705.91	8.6108e-004	91.928	
480	705.96	8.6085e-004	91.925	
481	706.03	8.6049e-004	91.921	
482	706.14	8.5991e-004	91.914	
483	706.33	8.5897e-004	91.903	
484	706.64	8.5745e-004	91.885	
485	707.14	8.5502e-004	91.86	
486	707.94	8.512e-004	91.824	
487	709.25	8.4529e-004	91.777	
488	711.38	8.3648e-004	91.715	
489	714.84	8.237e-004	91.629	
490	720.45	8.0549e-004	91.534	
491	724.38	7.9388e-004	91.536	
492	727.85	7.8404e-004	91.626	
493	733.56	7.6821e-004	92.125	
494	737.13	7.5905e-004	92.866	
495	739.34	7.5472e-004	93.597	
496	740.71	7.5311e-004	94.173	
497	741.55	7.5266e-004	94.577	
498	742.07	7.5263e-004	94.846	
499	742.39	7.5271e-004	95.019	
500	742.59	7.5279e-004	95.129	
501	742.71	7.5286e-004	95.197	
502	742.79	7.5291e-004	95.24	
503	742.84	7.5294e-004	95.267	
504	742.91	7.53e-004	95.31	
505	742.98	7.5306e-004	95.353	
506	743.03	7.531e-004	95.38	
507	743.11	7.5317e-004	95.424	
508	743.23	7.5329e-004	95.497	
509	743.43	7.5352e-004	95.618	
510	743.75	7.5397e-004	95.819	
511	744.27	7.5495e-004	96.163	
512	745.12	7.5731e-004	96.767	
513	746.5	7.6402e-004	97.872	
514	747.84	7.7563e-004	99.043	
515	749.14	7.9375e-004	100.14	
516	750.53	8.2135e-004	100.98	
517	751.38	8.4208e-004	101.19	
518	751.91	8.5576e-004	101.17	
519	752.24	8.6435e-004	101.1	
520	752.44	8.6967e-004	101.04	
521	752.56	8.7294e-004	100.99	
522	752.64	8.7495e-004	100.96	
523	752.69	8.7618e-004	100.94	
524	752.76	8.7816e-004	100.9	
525	752.84	8.8013e-004	100.86	
526	752.88	8.8136e-004	100.84	
527	752.96	8.8334e-004	100.8	
528	753.08	8.8655e-004	100.72	
529	753.29	8.9169e-004	100.59	
530	753.61	8.9984e-004	100.35	
531	754.14	9.1239e-004	99.886	
532	755.	9.305e-004	98.988	
533	756.4	9.5301e-004	97.329	
534	758.67	9.7351e-004	94.664	
535	761.59	9.8329e-004	91.835	
536	764.41	9.8633e-004	89.648	
537	766.7	9.8629e-004	88.111	
538	768.12	9.8485e-004	87.266	
539	769.	9.8345e-004	86.803	
540	769.54	9.8246e-004	86.546	
541	769.87	9.8184e-004	86.399	
542	770.08	9.8147e-004	86.313	
543	770.2	9.8124e-004	86.261	
544	770.28	9.811e-004	86.231	
545	770.33	9.8101e-004	86.212	
546	770.41	9.8088e-004	86.182	
547	770.49	9.8075e-004	86.153	
548	770.53	9.8066e-004	86.135	
549	770.61	9.8053e-004	86.106	
550	770.74	9.8033e-004	86.061	
551	770.94	9.8002e-004	85.989	
552	771.28	9.7957e-004	85.881	
553	771.82	9.7903e-004	85.722	
554	772.7	9.7881e-004	85.502	
555	774.13	9.8052e-004	85.204	
556	776.45	9.8853e-004	84.7	
557	777.7	9.9465e-004	84.354	
558	778.88	1.0009e-003	83.961	
559	781.21	1.0123e-003	83.02	
560	782.66	1.0172e-003	82.408	
561	783.55	1.0194e-003	82.067	
562	784.1	1.0204e-003	81.884	
563	784.44	1.021e-003	81.783	
564	784.65	1.0214e-003	81.727	
565	784.78	1.0216e-003	81.694	
566	784.86	1.0217e-003	81.675	
567	784.91	1.0218e-003	81.663	
568	784.99	1.022e-003	81.645	
569	785.07	1.0221e-003	81.627	
570	785.12	1.0222e-003	81.617	
571	785.2	1.0223e-003	81.6	
572	785.33	1.0226e-003	81.574	
573	785.54	1.023e-003	81.536	
574	785.88	1.0237e-003	81.482	
575	786.43	1.0252e-003	81.419	
576	787.33	1.0286e-003	81.369	
577	788.78	1.0373e-003	81.376	
578	791.15	1.0607e-003	81.401	
579	794.99	1.1191e-003	80.982	
580	801.23	1.2581e-003	78.793	
581	806.19	1.4183e-003	75.602	
582	810.62	1.6201e-003	71.15	
583	816.98	2.0678e-003	59.748	
584	820.95	2.458e-003	46.826	
585	823.41	2.6926e-003	35.187	
586	824.94	2.7904e-003	26.481	
587	825.88	2.8173e-003	20.647	
588	826.46	2.8181e-003	16.934	
589	826.82	2.8122e-003	14.619	
590	827.04	2.806e-003	13.188	
591	827.18	2.8013e-003	12.305	
592	827.26	2.7981e-003	11.762	
593	827.31	2.7959e-003	11.427	
594	827.39	2.7922e-003	10.89	
595	827.48	2.7883e-003	10.354	
596	827.53	2.7858e-003	10.02	
597	827.61	2.7814e-003	9.4773	
598	827.75	2.7737e-003	8.598	
599	827.97	2.7597e-003	7.175	
600	828.33	2.7334e-003	4.8821	
601	828.91	2.6817e-003	1.2248	
602	829.86	2.5778e-003	-4.4689	
603	831.39	2.3759e-003	-12.863	
604	831.46	2.3658e-003	-13.229	
605	831.52	2.3585e-003	-13.493	
606	833.06	2.1434e-003	-20.654	
607	834.01	2.0145e-003	-24.558	
608	834.59	1.9378e-003	-26.799	
609	834.96	1.8918e-003	-28.125	
610	835.18	1.8638e-003	-28.921	
611	835.32	1.8468e-003	-29.405	
612	835.4	1.8363e-003	-29.7	
613	835.45	1.8299e-003	-29.881	
614	835.54	1.8197e-003	-30.17	
615	835.62	1.8095e-003	-30.456	
616	835.67	1.8032e-003	-30.634	
617	835.76	1.793e-003	-30.921	
618	835.89	1.7765e-003	-31.383	
619	836.12	1.75e-003	-32.123	
620	836.48	1.7076e-003	-33.297	
621	837.07	1.6407e-003	-35.134	
622	838.02	1.5366e-003	-37.939	
623	839.57	1.3797e-003	-42.028	
624	842.09	1.1569e-003	-47.471	
625	846.18	8.7614e-004	-53.613	
626	852.82	5.7875e-004	-58.983	
627	852.82	5.7874e-004	-58.983	
628	859.17	4.0336e-004	-61.018	
629	863.34	3.2254e-004	-61.168	
630	865.93	2.8265e-004	-60.892	
631	867.53	2.613e-004	-60.671	
632	868.52	2.492e-004	-60.555	
633	869.13	2.4207e-004	-60.499	
634	869.51	2.378e-004	-60.473	
635	869.74	2.352e-004	-60.46	
636	869.88	2.3362e-004	-60.454	
637	869.97	2.3264e-004	-60.45	
638	870.03	2.3205e-004	-60.448	
639	870.11	2.3109e-004	-60.445	
640	870.2	2.3015e-004	-60.442	
641	870.25	2.2955e-004	-60.441	
642	870.34	2.286e-004	-60.439	
643	870.49	2.2705e-004	-60.436	
644	870.72	2.2456e-004	-60.434	
645	871.1	2.2057e-004	-60.436	
646	871.71	2.1419e-004	-60.45	
647	872.7	2.0409e-004	-60.499	
648	874.32	1.8828e-004	-60.609	
649	876.94	1.642e-004	-60.739	
650	881.2	1.2974e-004	-60.679	
651	887.38	8.9229e-005	-60.956	
652	893.26	5.7248e-005	-65.893	
653	897.6	3.4315e-005	-82.759	
654	900.29	2.1554e-005	-116.48	
655	901.96	1.9302e-005	-157.14	
656	902.99	2.2025e-005	177.77	
657	903.62	2.4946e-005	165.3	
658	904.01	2.7056e-005	158.79	
659	904.25	2.8439e-005	155.17	
660	904.4	2.9316e-005	153.07	
661	904.49	2.9864e-005	151.83	
662	904.55	3.0204e-005	151.08	
663	904.64	3.0753e-005	149.91	
664	904.73	3.1307e-005	148.77	
665	904.79	3.1654e-005	148.08	
666	904.88	3.2221e-005	146.97	
667	905.03	3.3148e-005	145.24	
668	905.27	3.4666e-005	142.58	
669	905.66	3.7148e-005	138.63	
670	906.3	4.117e-005	133.	
671	907.33	4.7511e-005	125.49	
672	908.45	5.3911e-005	119.03	
673	909.55	5.9727e-005	113.86	
674	910.58	6.4778e-005	109.8	
675	911.23	6.769e-005	107.59	
676	911.62	6.941e-005	106.32	
677	911.86	7.0441e-005	105.57	
678	912.01	7.1066e-005	105.12	
679	912.11	7.1447e-005	104.85	
680	912.16	7.168e-005	104.68	
681	912.25	7.2051e-005	104.42	
682	912.35	7.2419e-005	104.16	
683	912.4	7.2647e-005	104.	
684	912.49	7.3014e-005	103.74	
685	912.64	7.3604e-005	103.32	
686	912.89	7.4544e-005	102.66	
687	913.28	7.6023e-005	101.63	
688	913.93	7.8298e-005	100.04	
689	914.97	8.1656e-005	97.707	
690	916.66	8.6265e-005	94.488	
691	919.41	9.1927e-005	90.63	
692	923.88	9.8366e-005	87.138	
693	931.13	1.0639e-004	85.298	
694	942.9	1.1776e-004	85.371	
695	946.68	1.2111e-004	85.58	
696	949.22	1.2328e-004	85.728	
697	961.23	1.3275e-004	86.362	
698	968.77	1.3818e-004	86.644	
699	973.48	1.4146e-004	86.761	
700	976.4	1.4351e-004	86.804	
701	978.2	1.4479e-004	86.813	
702	979.32	1.4559e-004	86.81	
703	980.01	1.4609e-004	86.804	
704	980.43	1.464e-004	86.799	
705	980.7	1.4659e-004	86.795	
706	980.86	1.4671e-004	86.792	
707	980.96	1.4678e-004	86.79	
708	981.02	1.4682e-004	86.789	
709	981.12	1.4689e-004	86.787	
710	981.21	1.4697e-004	86.785	
711	981.27	1.4701e-004	86.784	
712	981.37	1.4708e-004	86.782	
713	981.54	1.472e-004	86.778	
714	981.8	1.4739e-004	86.772	
715	982.22	1.477e-004	86.761	
716	982.91	1.4821e-004	86.739	
717	984.04	1.4903e-004	86.696	
718	985.86	1.5036e-004	86.603	
719	988.81	1.5252e-004	86.394	
720	989.02	1.5267e-004	86.377	
721	989.16	1.5277e-004	86.365	
722	992.13	1.5491e-004	86.07	
723	993.97	1.5623e-004	85.851	
724	995.1	1.5704e-004	85.704	
725	995.8	1.5754e-004	85.608	
726	996.23	1.5785e-004	85.548	
727	996.5	1.5804e-004	85.51	
728	996.66	1.5816e-004	85.487	
729	996.76	1.5824e-004	85.472	
730	996.82	1.5828e-004	85.463	
731	996.92	1.5836e-004	85.448	
732	997.02	1.5843e-004	85.434	
733	997.09	1.5848e-004	85.425	
734	997.19	1.5855e-004	85.41	
735	997.35	1.5867e-004	85.385	
736	997.62	1.5887e-004	85.345	
737	998.05	1.592e-004	85.278	
738	998.75	1.5974e-004	85.164	
739	999.89	1.6065e-004	84.965	
740	1000.	1.6074e-004	84.945	
